#  lambda      flux
#   [A]        [erg cm^-2 s^-1 A^-1]
 3509.6855     1.273207e-01
 3513.7297     2.087854e-01
 3517.7739     7.361747e-01
 3521.8181     5.706294e-01
 3525.8622     4.085327e-01
 3529.9064     4.833544e-01
 3533.9506     4.196309e-01
 3537.9948     1.985003e-01
 3542.0389     2.699306e-01
 3546.0831     1.527456e-01
 3550.1273     2.377385e-01
 3554.1715     1.355178e-01
 3558.2157     3.780200e-01
 3562.2598     1.223702e-01
 3566.3040     3.873143e-01
 3570.3482     3.388518e-01
 3574.3924     5.126558e-01
 3578.4366     3.453917e-01
 3582.4807     2.495269e-01
 3586.5249     2.650433e-01
 3590.5691     2.153504e-01
 3594.6133     3.339216e-01
 3598.6574     3.497669e-01
 3602.7016     4.886335e-01
 3606.7458     4.724907e-01
 3610.7900     4.904342e-01
 3614.8342     4.188595e-01
 3618.8783     4.179572e-01
 3622.9225     3.138505e-01
 3626.9667     3.850278e-01
 3631.0109     2.527177e-01
 3635.0550     5.279726e-01
 3639.0992     3.942682e-01
 3643.1434     4.234963e-01
 3647.1876     1.921254e-01
 3651.2318     3.204032e-01
 3655.2759     4.024561e-01
 3659.3201     3.995879e-01
 3663.3643     3.545082e-01
 3667.4085     5.123900e-01
 3671.4526     3.972701e-01
 3675.4968     5.359069e-01
 3679.5410     4.166502e-01
 3683.5852     4.468100e-01
 3687.6294     4.371385e-01
 3691.6735     3.357273e-01
 3695.7177     3.269394e-01
 3699.7619     3.961336e-01
 3703.8061     4.627244e-01
 3707.8502     4.845617e-01
 3711.8944     4.610400e-01
 3715.9386     4.640336e-01
 3719.9828     4.082454e-01
 3724.0270     3.926026e-01
 3728.0711     3.780151e-01
 3732.1153     5.119816e-01
 3736.1595     3.733403e-01
 3740.2037     4.381980e-01
 3744.2478     3.048399e-01
 3748.2920     3.416033e-01
 3752.3362     4.071280e-01
 3756.3804     4.154912e-01
 3760.4246     3.178683e-01
 3764.4687     4.032276e-01
 3768.5129     4.068636e-01
 3772.5571     3.157500e-01
 3776.6013     3.618148e-01
 3780.6455     4.643475e-01
 3784.6896     4.953827e-01
 3788.7338     5.025320e-01
 3792.7780     4.758940e-01
 3796.8222     3.883197e-01
 3800.8663     4.808720e-01
 3804.9105     4.511309e-01
 3808.9547     4.355158e-01
 3812.9989     4.741292e-01
 3817.0431     5.039369e-01
 3821.0872     4.149406e-01
 3825.1314     3.894119e-01
 3829.1756     4.129246e-01
 3833.2198     3.987734e-01
 3837.2639     2.612391e-01
 3841.3081     3.225692e-01
 3845.3523     3.129684e-01
 3849.3965     3.442258e-01
 3853.4407     4.083298e-01
 3857.4848     5.174754e-01
 3861.5290     5.157775e-01
 3865.5732     4.870797e-01
 3869.6174     4.785101e-01
 3873.6615     4.821388e-01
 3877.7057     4.384303e-01
 3881.7499     3.718025e-01
 3885.7941     4.309799e-01
 3889.8383     3.739799e-01
 3893.8824     3.449079e-01
 3897.9266     4.178385e-01
 3901.9708     4.536012e-01
 3906.0150     4.759443e-01
 3910.0591     5.891900e-01
 3914.1033     5.550583e-01
 3918.1475     5.656668e-01
 3922.1917     5.304778e-01
 3926.2359     4.785918e-01
 3930.2800     4.518231e-01
 3934.3242     3.584372e-01
 3938.3684     3.389025e-01
 3942.4126     3.025850e-01
 3946.4567     3.669679e-01
 3950.5009     4.753882e-01
 3954.5451     4.615449e-01
 3958.5893     4.965450e-01
 3962.6335     5.086516e-01
 3966.6776     4.475131e-01
 3970.7218     3.807276e-01
 3974.7660     3.731214e-01
 3978.8102     4.266745e-01
 3982.8544     4.748955e-01
 3986.8985     5.029861e-01
 3990.9427     5.997028e-01
 3994.9869     6.693157e-01
 3999.0311     6.527724e-01
 4003.0752     6.386335e-01
 4007.1194     5.916069e-01
 4011.1636     6.427599e-01
 4015.2078     6.829158e-01
 4019.2520     7.102060e-01
 4023.2961     7.418709e-01
 4027.3403     7.296146e-01
 4031.3845     7.030782e-01
 4035.4287     6.703373e-01
 4039.4728     6.762962e-01
 4043.5170     6.595420e-01
 4047.5612     7.315941e-01
 4051.6054     6.918101e-01
 4055.6496     6.583206e-01
 4059.6937     6.484143e-01
 4063.7379     6.179417e-01
 4067.7821     6.566228e-01
 4071.8263     6.429198e-01
 4075.8704     6.960935e-01
 4079.9146     6.789132e-01
 4083.9588     6.077397e-01
 4088.0030     6.957326e-01
 4092.0472     7.099158e-01
 4096.0913     7.314779e-01
 4100.1355     6.468223e-01
 4104.1797     5.892574e-01
 4108.2239     6.171622e-01
 4112.2680     6.637372e-01
 4116.3122     6.067595e-01
 4120.3564     6.319729e-01
 4124.4006     6.805792e-01
 4128.4448     6.835494e-01
 4132.4889     7.168174e-01
 4136.5331     7.090033e-01
 4140.5773     6.883290e-01
 4144.6215     7.333916e-01
 4148.6656     7.010108e-01
 4152.7098     6.696248e-01
 4156.7540     7.102582e-01
 4160.7982     7.152780e-01
 4164.8424     6.898198e-01
 4168.8865     6.684056e-01
 4172.9307     6.675000e-01
 4176.9749     6.733076e-01
 4181.0191     6.664045e-01
 4185.0633     6.598756e-01
 4189.1074     6.847981e-01
 4193.1516     6.550494e-01
 4197.1958     7.027525e-01
 4201.2400     7.032483e-01
 4205.2841     7.091040e-01
 4209.3283     7.415646e-01
 4213.3725     6.631701e-01
 4217.4167     7.181845e-01
 4221.4609     7.348021e-01
 4225.5050     6.789141e-01
 4229.5492     6.428187e-01
 4233.5934     6.783410e-01
 4237.6376     7.009270e-01
 4241.6817     7.121903e-01
 4245.7259     7.535763e-01
 4249.7701     6.777568e-01
 4253.8143     7.379528e-01
 4257.8585     7.251542e-01
 4261.9026     7.121409e-01
 4265.9468     7.236251e-01
 4269.9910     6.575491e-01
 4274.0352     6.288947e-01
 4278.0793     7.462224e-01
 4282.1235     7.347702e-01
 4286.1677     6.880358e-01
 4290.2119     7.317125e-01
 4294.2561     6.946816e-01
 4298.3002     6.020966e-01
 4302.3444     5.733110e-01
 4306.3886     5.721166e-01
 4310.4328     5.946108e-01
 4314.4769     6.015914e-01
 4318.5211     5.883170e-01
 4322.5653     6.483924e-01
 4326.6095     7.180766e-01
 4330.6537     7.449443e-01
 4334.6978     6.926277e-01
 4338.7420     6.969432e-01
 4342.7862     6.745963e-01
 4346.8304     7.633174e-01
 4350.8745     7.317591e-01
 4354.9187     6.936656e-01
 4358.9629     7.532961e-01
 4363.0071     7.914203e-01
 4367.0513     7.743049e-01
 4371.0954     7.561059e-01
 4375.1396     7.866444e-01
 4379.1838     7.687111e-01
 4383.2280     7.840490e-01
 4387.2722     7.402325e-01
 4391.3163     7.174491e-01
 4395.3605     6.331449e-01
 4399.4047     7.213597e-01
 4403.4489     7.336270e-01
 4407.4930     7.506720e-01
 4411.5372     7.414261e-01
 4415.5814     7.486186e-01
 4419.6256     8.033153e-01
 4423.6698     8.347356e-01
 4427.7139     7.864649e-01
 4431.7581     7.974665e-01
 4435.8023     7.873280e-01
 4439.8465     7.919164e-01
 4443.8906     8.030787e-01
 4447.9348     7.967932e-01
 4451.9790     8.555833e-01
 4456.0232     8.865867e-01
 4460.0674     7.936937e-01
 4464.1115     7.647190e-01
 4468.1557     7.654905e-01
 4472.1999     8.203833e-01
 4476.2441     8.536588e-01
 4480.2882     8.956046e-01
 4484.3324     8.432425e-01
 4488.3766     8.385025e-01
 4492.4208     7.980697e-01
 4496.4650     8.618257e-01
 4500.5091     9.081115e-01
 4504.5533     9.724001e-01
 4508.5975     9.612701e-01
 4512.6417     9.081374e-01
 4516.6858     9.181427e-01
 4520.7300     9.309559e-01
 4524.7742     9.522056e-01
 4528.8184     9.394816e-01
 4532.8626     8.695545e-01
 4536.9067     8.360073e-01
 4540.9509     8.366645e-01
 4544.9951     8.650553e-01
 4549.0393     9.112020e-01
 4553.0835     8.563337e-01
 4557.1276     8.740141e-01
 4561.1718     8.632753e-01
 4565.2160     8.784840e-01
 4569.2602     8.871253e-01
 4573.3043     9.491544e-01
 4577.3485     9.305303e-01
 4581.3927     9.283181e-01
 4585.4369     9.147673e-01
 4589.4811     8.820164e-01
 4593.5252     8.690450e-01
 4597.5694     8.751224e-01
 4601.6136     9.109228e-01
 4605.6578     9.419636e-01
 4609.7019     9.273940e-01
 4613.7461     9.580076e-01
 4617.7903     9.147056e-01
 4621.8345     9.377707e-01
 4625.8787     9.754995e-01
 4629.9228     9.724967e-01
 4633.9670     9.557503e-01
 4638.0112     9.173991e-01
 4642.0554     8.750194e-01
 4646.0995     8.883780e-01
 4650.1437     9.349699e-01
 4654.1879     9.513270e-01
 4658.2321     8.747791e-01
 4662.2763     9.232638e-01
 4666.3204     8.444353e-01
 4670.3646     8.431848e-01
 4674.4088     9.034267e-01
 4678.4530     8.637878e-01
 4682.4971     8.647780e-01
 4686.5413     8.839409e-01
 4690.5855     9.025764e-01
 4694.6297     9.100564e-01
 4698.6739     8.742408e-01
 4702.7180     8.915060e-01
 4706.7622     9.057742e-01
 4710.8064     8.730307e-01
 4714.8506     8.594697e-01
 4718.8947     8.894969e-01
 4722.9389     9.544915e-01
 4726.9831     9.337989e-01
 4731.0273     9.211668e-01
 4735.0715     9.151598e-01
 4739.1156     9.019985e-01
 4743.1598     9.160202e-01
 4747.2040     9.210570e-01
 4751.2482     9.563724e-01
 4755.2924     9.483478e-01
 4759.3365     9.442441e-01
 4763.3807     8.889889e-01
 4767.4249     9.354290e-01
 4771.4691     9.172324e-01
 4775.5132     9.232624e-01
 4779.5574     9.257224e-01
 4783.6016     9.617862e-01
 4787.6458     9.115592e-01
 4791.6900     8.882048e-01
 4795.7341     9.171605e-01
 4799.7783     9.577159e-01
 4803.8225     9.188501e-01
 4807.8667     9.673314e-01
 4811.9108     9.192452e-01
 4815.9550     9.972038e-01
 4819.9992     9.595926e-01
 4824.0434     9.680972e-01
 4828.0876     9.425804e-01
 4832.1317     9.514408e-01
 4836.1759     9.159904e-01
 4840.2201     9.335175e-01
 4844.2643     9.118009e-01
 4848.3084     9.210708e-01
 4852.3526     9.119411e-01
 4856.3968     9.189554e-01
 4860.4410     9.283286e-01
 4864.4852     9.399838e-01
 4868.5293     9.135814e-01
 4872.5735     8.730805e-01
 4876.6177     8.516519e-01
 4880.6619     8.793434e-01
 4884.7060     8.867390e-01
 4888.7502     8.661782e-01
 4892.7944     8.747779e-01
 4896.8386     8.637473e-01
 4900.8828     9.466373e-01
 4904.9269     9.312733e-01
 4908.9711     9.606611e-01
 4913.0153     9.742230e-01
 4917.0595     9.339528e-01
 4921.1036     9.607997e-01
 4925.1478     9.569545e-01
 4929.1920     9.415435e-01
 4933.2362     9.212537e-01
 4937.2804     9.675480e-01
 4941.3245     9.797097e-01
 4945.3687     9.635217e-01
 4949.4129     9.442489e-01
 4953.4571     9.255032e-01
 4957.5013     9.921484e-01
 4961.5454     1.014078e+00
 4965.5896     9.561979e-01
 4969.6338     9.814457e-01
 4973.6780     9.635355e-01
 4977.7221     9.320060e-01
 4981.7663     9.261194e-01
 4985.8105     9.566674e-01
 4989.8547     9.514539e-01
 4993.8989     8.895597e-01
 4997.9430     9.021473e-01
 5001.9872     9.132901e-01
 5006.0314     9.493184e-01
 5010.0756     9.311802e-01
 5014.1197     9.786228e-01
 5018.1639     9.255974e-01
 5022.2081     8.883578e-01
 5026.2523     8.512328e-01
 5030.2965     8.840846e-01
 5034.3406     9.167368e-01
 5038.3848     9.058131e-01
 5042.4290     9.115561e-01
 5046.4732     9.226457e-01
 5050.5173     9.025240e-01
 5054.5615     9.327072e-01
 5058.6057     9.675489e-01
 5062.6499     9.976845e-01
 5066.6941     9.993621e-01
 5070.7382     9.037598e-01
 5074.7824     9.126945e-01
 5078.8266     9.351180e-01
 5082.8708     9.024310e-01
 5086.9149     9.420197e-01
 5090.9591     9.481232e-01
 5095.0033     9.076658e-01
 5099.0475     9.148953e-01
 5103.0917     9.564884e-01
 5107.1358     9.097856e-01
 5111.1800     9.206171e-01
 5115.2242     9.632134e-01
 5119.2684     9.801338e-01
 5123.3125     9.516140e-01
 5127.3567     9.096785e-01
 5131.4009     8.932757e-01
 5135.4451     9.207695e-01
 5139.4893     9.362481e-01
 5143.5334     9.304564e-01
 5147.5776     9.045552e-01
 5151.6218     8.462776e-01
 5155.6660     8.823367e-01
 5159.7102     8.937933e-01
 5163.7543     8.588454e-01
 5167.7985     8.831800e-01
 5171.8427     8.260200e-01
 5175.8869     8.041767e-01
 5179.9310     7.323123e-01
 5183.9752     7.102205e-01
 5188.0194     7.818605e-01
 5192.0636     8.594774e-01
 5196.1078     9.036052e-01
 5200.1519     9.041489e-01
 5204.1961     8.908433e-01
 5208.2403     8.781935e-01
 5212.2845     8.989574e-01
 5216.3286     8.872898e-01
 5220.3728     9.210473e-01
 5224.4170     9.185115e-01
 5228.4612     9.179171e-01
 5232.5054     9.253709e-01
 5236.5495     8.565329e-01
 5240.5937     9.480274e-01
 5244.6379     1.039567e+00
 5248.6821     9.974086e-01
 5252.7262     9.993036e-01
 5256.7704     9.636074e-01
 5260.8146     9.317993e-01
 5264.8588     9.068223e-01
 5268.9030     8.937193e-01
 5272.9471     8.991748e-01
 5276.9913     8.929036e-01
 5281.0355     9.073809e-01
 5285.0797     9.506475e-01
 5289.1238     9.363256e-01
 5293.1680     9.973485e-01
 5297.2122     1.064110e+00
 5301.2564     1.048076e+00
 5305.3006     1.002670e+00
 5309.3447     9.819615e-01
 5313.3889     9.687350e-01
 5317.4331     1.008973e+00
 5321.4773     1.067282e+00
 5325.5215     1.056063e+00
 5329.5656     1.007335e+00
 5333.6098     9.755542e-01
 5337.6540     9.214505e-01
 5341.6982     9.568979e-01
 5345.7423     9.759890e-01
 5349.7865     1.002026e+00
 5353.8307     1.008505e+00
 5357.8749     1.048806e+00
 5361.9191     1.054113e+00
 5365.9632     1.006613e+00
 5370.0074     1.020395e+00
 5374.0516     9.998928e-01
 5378.0958     1.003336e+00
 5382.1399     9.677121e-01
 5386.1841     1.023124e+00
 5390.2283     1.047160e+00
 5394.2725     1.027670e+00
 5398.3167     1.052869e+00
 5402.3608     9.990042e-01
 5406.4050     9.756291e-01
 5410.4492     9.915951e-01
 5414.4934     9.902599e-01
 5418.5375     9.983505e-01
 5422.5817     1.009412e+00
 5426.6259     1.018366e+00
 5430.6701     1.001897e+00
 5434.7143     1.037596e+00
 5438.7584     1.016622e+00
 5442.8026     9.898713e-01
 5446.8468     9.875491e-01
 5450.8910     9.894624e-01
 5454.9351     9.973921e-01
 5458.9793     9.998400e-01
 5463.0235     9.835944e-01
 5467.0677     1.019757e+00
 5471.1119     1.000234e+00
 5475.1560     9.280436e-01
 5479.2002     1.014278e+00
 5483.2444     1.061905e+00
 5487.2886     1.038313e+00
 5491.3327     1.020139e+00
 5495.3769     1.006085e+00
 5499.4211     1.005293e+00
 5503.4653     1.033623e+00
 5507.5095     1.058558e+00
 5511.5536     1.012456e+00
 5515.5978     9.970164e-01
 5519.6420     9.611059e-01
 5523.6862     9.913949e-01
 5527.7304     1.003255e+00
 5531.7745     1.015054e+00
 5535.8187     1.026892e+00
 5539.8629     1.038752e+00
 5543.9071     9.814757e-01
 5547.9512     9.510744e-01
 5551.9954     9.581321e-01
 5556.0396     9.651983e-01
 5560.0838     9.722751e-01
 5564.1280     9.793600e-01
 5568.1721     1.052060e+00
 5572.2163     9.786264e-01
 5576.2605     1.012508e+00
 5580.3047     9.960862e-01
 5584.3488     1.008475e+00
 5588.3930     1.007964e+00
 5592.4372     9.922743e-01
 5596.4814     9.962412e-01
 5600.5256     9.621280e-01
 5604.5697     9.427483e-01
 5608.6139     1.006155e+00
 5612.6581     1.053956e+00
 5616.7023     1.004449e+00
 5620.7464     1.045558e+00
 5624.7906     1.013540e+00
 5628.8348     1.001081e+00
 5632.8790     1.045545e+00
 5636.9232     1.046702e+00
 5640.9673     1.034503e+00
 5645.0115     1.008402e+00
 5649.0557     9.724565e-01
 5653.0999     9.743227e-01
 5657.1440     9.997194e-01
 5661.1882     9.655459e-01
 5665.2324     9.644324e-01
 5669.2766     9.372914e-01
 5673.3208     9.773101e-01
 5677.3649     1.023853e+00
 5681.4091     9.645771e-01
 5685.4533     1.033178e+00
 5689.4975     1.025377e+00
 5693.5416     1.033471e+00
 5697.5858     1.052555e+00
 5701.6300     1.013345e+00
 5705.6742     9.932441e-01
 5709.7184     9.650082e-01
 5713.7625     9.657729e-01
 5717.8067     9.961209e-01
 5721.8509     1.046058e+00
 5725.8951     1.015618e+00
 5729.9393     1.036921e+00
 5733.9834     1.044888e+00
 5738.0276     1.058391e+00
 5742.0718     1.050907e+00
 5746.1160     1.016095e+00
 5750.1601     9.772913e-01
 5754.2043     1.039357e+00
 5758.2485     1.074662e+00
 5762.2927     1.048262e+00
 5766.3369     1.022289e+00
 5770.3810     1.071190e+00
 5774.4252     1.111043e+00
 5778.4694     1.046581e+00
 5782.5136     1.015432e+00
 5786.5577     9.998370e-01
 5790.6019     9.918010e-01
 5794.6461     9.876473e-01
 5798.6903     1.004125e+00
 5802.7345     1.071156e+00
 5806.7786     1.078136e+00
 5810.8228     1.040356e+00
 5814.8670     1.061203e+00
 5818.9112     1.045578e+00
 5822.9553     1.001704e+00
 5826.9995     1.033649e+00
 5831.0437     1.048134e+00
 5835.0879     9.981198e-01
 5839.1321     1.011751e+00
 5843.1762     9.836199e-01
 5847.2204     9.631740e-01
 5851.2646     9.991233e-01
 5855.3088     9.392072e-01
 5859.3529     9.274414e-01
 5863.3971     1.009228e+00
 5867.4413     1.032168e+00
 5871.4855     9.720198e-01
 5875.5297     9.664258e-01
 5879.5738     9.837567e-01
 5883.6180     9.507838e-01
 5887.6622     8.802904e-01
 5891.7064     9.293543e-01
 5895.7505     8.825285e-01
 5899.7947     8.834108e-01
 5903.8389     9.082769e-01
 5907.8831     9.087570e-01
 5911.9273     9.768434e-01
 5915.9714     1.017769e+00
 5920.0156     1.019406e+00
 5924.0598     1.022344e+00
 5928.1040     9.950300e-01
 5932.1482     9.559497e-01
 5936.1923     9.677171e-01
 5940.2365     1.002710e+00
 5944.2807     9.682659e-01
 5948.3249     9.850948e-01
 5952.3690     9.751852e-01
 5956.4132     9.949094e-01
 5960.4574     1.022140e+00
 5964.5016     1.034256e+00
 5968.5458     9.850215e-01
 5972.5899     9.795618e-01
 5976.6341     9.820082e-01
 5980.6783     1.053193e+00
 5984.7225     1.047544e+00
 5988.7666     1.053774e+00
 5992.8108     1.103578e+00
 5996.8550     1.043840e+00
 6000.8992     1.002004e+00
 6004.9434     9.917365e-01
 6008.9875     9.874130e-01
 6013.0317     1.044617e+00
 6017.0759     1.038466e+00
 6021.1201     1.017877e+00
 6025.1642     9.801444e-01
 6029.2084     1.040607e+00
 6033.2526     1.053148e+00
 6037.2968     1.040447e+00
 6041.3410     1.034659e+00
 6045.3851     1.081062e+00
 6049.4293     1.113355e+00
 6053.4735     1.085101e+00
 6057.5177     1.030019e+00
 6061.5618     1.011014e+00
 6065.6060     9.894373e-01
 6069.6502     1.054942e+00
 6073.6944     1.091260e+00
 6077.7386     1.063080e+00
 6081.7827     1.038403e+00
 6085.8269     1.076579e+00
 6089.8711     1.052945e+00
 6093.9153     1.022791e+00
 6097.9594     1.066128e+00
 6102.0036     1.086591e+00
 6106.0478     1.015770e+00
 6110.0920     9.895132e-01
 6114.1362     1.013908e+00
 6118.1803     1.012747e+00
 6122.2245     9.949566e-01
 6126.2687     9.975911e-01
 6130.3129     1.058191e+00
 6134.3571     1.037729e+00
 6138.4012     9.490153e-01
 6142.4454     1.008308e+00
 6146.4896     1.009677e+00
 6150.5338     9.918805e-01
 6154.5779     9.754273e-01
 6158.6221     1.009849e+00
 6162.6663     9.893124e-01
 6166.7105     1.011741e+00
 6170.7547     9.692152e-01
 6174.7988     9.275808e-01
 6178.8430     9.451414e-01
 6182.8872     9.514551e-01
 6186.9314     9.915837e-01
 6190.9755     9.399095e-01
 6195.0197     9.131503e-01
 6199.0639     9.535384e-01
 6203.1081     9.450281e-01
 6207.1523     9.820659e-01
 6211.1964     9.266499e-01
 6215.2406     9.374015e-01
 6219.2848     9.479004e-01
 6223.3290     9.631894e-01
 6227.3731     9.617990e-01
 6231.4173     9.950168e-01
 6235.4615     9.573992e-01
 6239.5057     9.196978e-01
 6243.5499     9.399627e-01
 6247.5940     9.345566e-01
 6251.6382     9.315988e-01
 6255.6824     9.287035e-01
 6259.7266     9.234466e-01
 6263.7707     9.362032e-01
 6267.8149     9.471519e-01
 6271.8591     9.318715e-01
 6275.9033     9.275430e-01
 6279.9475     9.194707e-01
 6283.9916     9.312530e-01
 6288.0358     1.003726e+00
 6292.0800     1.022076e+00
 6296.1242     9.567885e-01
 6300.1684     9.653454e-01
 6304.2125     1.017816e+00
 6308.2567     9.751037e-01
 6312.3009     8.819402e-01
 6316.3451     8.832954e-01
 6320.3892     1.016867e+00
 6324.4334     1.012560e+00
 6328.4776     9.464264e-01
 6332.5218     1.000893e+00
 6336.5660     1.087809e+00
 6340.6101     1.038148e+00
 6344.6543     1.032822e+00
 6348.6985     1.008397e+00
 6352.7427     9.911522e-01
 6356.7868     9.839629e-01
 6360.8310     1.000021e+00
 6364.8752     1.025772e+00
 6368.9194     1.012147e+00
 6372.9636     1.032277e+00
 6377.0077     1.062392e+00
 6381.0519     1.071471e+00
 6385.0961     1.064297e+00
 6389.1403     1.034363e+00
 6393.1844     9.946930e-01
 6397.2286     1.032657e+00
 6401.2728     1.029997e+00
 6405.3170     9.668673e-01
 6409.3612     9.921286e-01
 6413.4053     1.011605e+00
 6417.4495     1.012983e+00
 6421.4937     9.838006e-01
 6425.5379     9.691688e-01
 6429.5820     9.611871e-01
 6433.6262     9.718088e-01
 6437.6704     1.026918e+00
 6441.7146     9.910178e-01
 6445.7588     9.708199e-01
 6449.8029     9.655112e-01
 6453.8471     9.683530e-01
 6457.8913     1.022490e+00
 6461.9355     9.864676e-01
 6465.9796     9.552768e-01
 6470.0238     9.873329e-01
 6474.0680     1.005639e+00
 6478.1122     1.026961e+00
 6482.1564     9.926445e-01
 6486.2005     1.011929e+00
 6490.2447     1.034388e+00
 6494.2889     9.950552e-01
 6498.3331     9.717166e-01
 6502.3773     9.608884e-01
 6506.4214     9.740031e-01
 6510.4656     9.888235e-01
 6514.5098     9.846668e-01
 6518.5540     9.897529e-01
 6522.5981     1.049165e+00
 6526.6423     1.092096e+00
 6530.6865     1.068808e+00
 6534.7307     1.058111e+00
 6538.7749     1.055461e+00
 6542.8190     1.022396e+00
 6546.8632     1.085475e+00
 6550.9074     1.035550e+00
 6554.9516     1.132281e+00
 6558.9957     1.178431e+00
 6563.0399     1.228903e+00
 6567.0841     1.237995e+00
 6571.1283     1.301693e+00
 6575.1725     1.261482e+00
 6579.2166     1.223233e+00
 6583.2608     1.201423e+00
 6587.3050     1.178320e+00
 6591.3492     1.190029e+00
 6595.3933     1.125075e+00
 6599.4375     1.071328e+00
 6603.4817     1.042986e+00
 6607.5259     1.052273e+00
 6611.5701     1.072484e+00
 6615.6142     1.032126e+00
 6619.6584     9.970980e-01
 6623.7026     9.910077e-01
 6627.7468     1.025410e+00
 6631.7909     1.054258e+00
 6635.8351     1.044455e+00
 6639.8793     1.041661e+00
 6643.9235     1.039665e+00
 6647.9677     9.771359e-01
 6652.0118     1.029636e+00
 6656.0560     1.034317e+00
 6660.1002     9.917082e-01
 6664.1444     1.070756e+00
 6668.1885     1.054640e+00
 6672.2327     1.016904e+00
 6676.2769     9.507090e-01
 6680.3211     9.612968e-01
 6684.3653     1.029649e+00
 6688.4094     1.047007e+00
 6692.4536     1.026827e+00
 6696.4978     1.018369e+00
 6700.5420     1.007474e+00
 6704.5862     1.005100e+00
 6708.6303     1.039612e+00
 6712.6745     1.009954e+00
 6716.7187     1.041022e+00
 6720.7629     1.082459e+00
 6724.8070     1.093928e+00
 6728.8512     1.030280e+00
 6732.8954     9.982902e-01
 6736.9396     1.021097e+00
 6740.9838     1.058162e+00
 6745.0279     1.018365e+00
 6749.0721     9.777194e-01
 6753.1163     9.669048e-01
 6757.1605     1.009539e+00
 6761.2046     1.009770e+00
 6765.2488     9.822102e-01
 6769.2930     9.672838e-01
 6773.3372     9.935927e-01
 6777.3814     9.497920e-01
 6781.4255     9.666151e-01
 6785.4697     1.042417e+00
 6789.5139     1.053608e+00
 6793.5581     1.003659e+00
 6797.6022     1.077827e+00
 6801.6464     1.069439e+00
 6805.6906     8.824199e-01
 6809.7348     8.382684e-01
 6813.7790     9.152521e-01
 6817.8231     9.499018e-01
 6821.8673     9.078399e-01
 6825.9115     9.283475e-01
 6829.9557     8.939147e-01
 6833.9998     8.607617e-01
 6838.0440     7.498931e-01
 6842.0882     7.731744e-01
 6846.1324     8.217213e-01
 6850.1766     7.874436e-01
 6854.2207     8.455662e-01
 6858.2649     9.105072e-01
 6862.3091     8.973141e-01
 6866.3533     8.732063e-01
 6870.3974     8.217698e-01
 6874.4416     9.202185e-01
 6878.4858     9.924555e-01
 6882.5300     9.075112e-01
 6886.5742     8.837817e-01
 6890.6183     9.167019e-01
 6894.6625     9.128568e-01
 6898.7067     8.856555e-01
 6902.7509     9.292661e-01
 6906.7951     9.230319e-01
 6910.8392     8.606174e-01
 6914.8834     9.641495e-01
 6918.9276     9.149106e-01
 6922.9718     9.115090e-01
 6927.0159     9.468182e-01
 6931.0601     9.563814e-01
 6935.1043     9.435033e-01
 6939.1485     9.750571e-01
 6943.1927     9.873374e-01
 6947.2368     9.214550e-01
 6951.2810     8.910065e-01
 6955.3252     9.351594e-01
 6959.3694     9.659297e-01
 6963.4135     9.591476e-01
 6967.4577     1.031577e+00
 6971.5019     9.534432e-01
 6975.5461     9.212370e-01
 6979.5903     9.059366e-01
 6983.6344     9.129527e-01
 6987.6786     9.413111e-01
 6991.7228     9.544400e-01
 6995.7670     9.671550e-01
 6999.8111     9.976135e-01
 7003.8553     1.022857e+00
 7007.8995     1.030524e+00
 7011.9437     9.196810e-01
 7015.9879     9.181846e-01
 7020.0320     1.011842e+00
 7024.0762     9.726462e-01
 7028.1204     9.707906e-01
 7032.1646     9.758955e-01
 7036.2087     9.869592e-01
 7040.2529     9.984221e-01
 7044.2971     9.941920e-01
 7048.3413     9.950345e-01
 7052.3855     1.010014e+00
 7056.4296     9.943043e-01
 7060.4738     9.725275e-01
 7064.5180     9.437960e-01
 7068.5622     9.749987e-01
 7072.6063     9.589545e-01
 7076.6505     9.391775e-01
 7080.6947     9.319256e-01
 7084.7389     9.189702e-01
 7088.7831     9.144340e-01
 7092.8272     9.236878e-01
 7096.8714     9.735959e-01
 7100.9156     9.504289e-01
 7104.9598     9.155208e-01
 7109.0040     9.238847e-01
 7113.0481     9.076108e-01
 7117.0923     9.138366e-01
 7121.1365     8.553938e-01
 7125.1807     7.948004e-01
 7129.2248     8.276047e-01
 7133.2690     7.490420e-01
 7137.3132     7.238291e-01
 7141.3574     6.945397e-01
 7145.4016     7.203959e-01
 7149.4457     7.032874e-01
 7153.4899     6.803786e-01
 7157.5341     7.161946e-01
 7161.5783     7.939110e-01
 7165.6224     8.316844e-01
 7169.6666     8.780985e-01
 7173.7108     8.737781e-01
 7177.7550     8.199700e-01
 7181.7992     7.735209e-01
 7185.8433     7.093549e-01
 7189.8875     8.621489e-01
 7193.9317     9.205461e-01
 7197.9759     8.826988e-01
 7202.0200     9.325044e-01
 7206.0642     8.993720e-01
 7210.1084     9.086825e-01
 7214.1526     9.179954e-01
 7218.1968     9.273113e-01
 7222.2409     9.366389e-01
 7226.2851     9.459472e-01
 7230.3293     9.560132e-01
 7234.3735     9.275180e-01
 7238.4176     1.028812e+00
 7242.4618     9.802822e-01
 7246.5060     7.820561e-01
 7250.5502     7.219622e-01
 7254.5944     7.498522e-01
 7258.6385     7.410824e-01
 7262.6827     7.974883e-01
 7266.7269     8.896320e-01
 7270.7711     8.777288e-01
 7274.8153     9.231569e-01
 7278.8594     9.664546e-01
 7282.9036     8.299586e-01
 7286.9478     8.048368e-01
 7290.9920     9.639376e-01
 7295.0361     1.038632e+00
 7299.0803     9.290718e-01
 7303.1245     9.339264e-01
 7307.1687     8.956881e-01
 7311.2129     8.116437e-01
 7315.2570     9.457989e-01
 7319.3012     9.627878e-01
 7323.3454     1.045930e+00
 7327.3896     9.807791e-01
 7331.4337     9.301828e-01
 7335.4779     8.698145e-01
 7339.5221     7.786641e-01
 7343.5663     8.679858e-01
 7347.6105     9.883831e-01
 7351.6546     1.038522e+00
 7355.6988     1.013222e+00
 7359.7430     9.110703e-01
 7363.7872     8.765680e-01
 7367.8313     8.984880e-01
 7371.8755     8.624322e-01
 7375.9197     8.230673e-01
 7379.9639     9.189387e-01
 7384.0081     9.804028e-01
 7388.0522     1.070412e+00
 7392.0964     1.057489e+00
 7396.1406     9.409764e-01
 7400.1848     8.991405e-01
 7404.2289     9.043144e-01
 7408.2731     8.727421e-01
 7412.3173     9.365005e-01
 7416.3615     1.008257e+00
 7420.4057     1.015379e+00
 7424.4498     9.952394e-01
 7428.4940     9.450791e-01
 7432.5382     9.558866e-01
 7436.5824     8.830537e-01
 7440.6265     9.209623e-01
 7444.6707     9.169409e-01
 7448.7149     8.126701e-01
 7452.7591     7.914632e-01
 7456.8033     7.814325e-01
 7460.8474     6.896138e-01
