Wavelength[Angstrom];Normalized Flux[Counts]
3650.00;0.360602
3652.00;0.342515
3654.00;0.339107
3656.00;0.346808
3658.00;0.350216
3660.00;0.332210
3662.00;0.324509
3664.00;0.338608
3666.00;0.373013
3668.00;0.396502
3670.00;0.394509
3672.00;0.390007
3674.00;0.381711
3676.00;0.401502
3678.00;0.399412
3680.00;0.399412
3682.00;0.395907
3684.00;0.392306
3686.00;0.394010
3688.00;0.374509
3690.00;0.362901
3692.00;0.345007
3694.00;0.354605
3696.00;0.371711
3698.00;0.386502
3700.00;0.394911
3702.00;0.402113
3704.00;0.404412
3706.00;0.404814
3708.00;0.406100
3710.00;0.407612
3712.00;0.398914
3714.00;0.388705
3716.00;0.375216
3718.00;0.369010
3720.00;0.363415
3722.00;0.364605
3724.00;0.365602
3726.00;0.378705
3728.00;0.372306
3730.00;0.357708
3732.00;0.332805
3734.00;0.333014
3736.00;0.334702
3738.00;0.332306
3740.00;0.313608
3742.00;0.305409
3744.00;0.294107
3746.00;0.284010
3748.00;0.272612
3750.00;0.276904
3752.00;0.288914
3754.00;0.291904
3756.00;0.283110
3758.00;0.274911
3760.00;0.280104
3762.00;0.288914
3764.00;0.303415
3766.00;0.299605
3768.00;0.300714
3770.00;0.313801
3772.00;0.334010
3774.00;0.349814
3776.00;0.355505
3778.00;0.362113
3780.00;0.358705
3782.00;0.359702
3784.00;0.376213
3786.00;0.400602
3788.00;0.412403
3790.00;0.415104
3792.00;0.415505
3794.00;0.422611
3796.00;0.412612
3798.00;0.386904
3800.00;0.355907
3802.00;0.332001
3804.00;0.323914
3806.00;0.318110
3808.00;0.321004
3810.00;0.323914
3812.00;0.325409
3814.00;0.329010
3816.00;0.350104
3818.00;0.365216
3820.00;0.353512
3822.00;0.341309
3824.00;0.320312
3826.00;0.322306
3828.00;0.307611
3830.00;0.316100
3832.00;0.309107
3834.00;0.288608
3836.00;0.250714
3838.00;0.218110
3840.00;0.215907
3842.00;0.220007
3844.00;0.229316
3846.00;0.228110
3848.00;0.237402
3850.00;0.243914
3852.00;0.251502
3854.00;0.250907
3856.00;0.269814
3858.00;0.284316
3860.00;0.300409
3862.00;0.295216
3864.00;0.294509
3866.00;0.280811
3868.00;0.270907
3870.00;0.267306
3872.00;0.279509
3874.00;0.291309
3876.00;0.290409
3878.00;0.284509
3880.00;0.291213
3882.00;0.291213
3884.00;0.286615
3886.00;0.282515
3888.00;0.278801
3890.00;0.278705
3892.00;0.280409
3894.00;0.293303
3896.00;0.296904
3898.00;0.297708
3900.00;0.304412
3902.00;0.328206
3904.00;0.362901
3906.00;0.394107
3908.00;0.419702
3910.00;0.432515
3912.00;0.439814
3914.00;0.430007
3916.00;0.420505
3918.00;0.415714
3920.00;0.434814
3922.00;0.444911
3924.00;0.447515
3926.00;0.448110
3928.00;0.430907
3930.00;0.400313
3932.00;0.360216
3934.00;0.324702
3936.00;0.301309
3938.00;0.281808
3940.00;0.257001
3942.00;0.228914
3944.00;0.198110
3946.00;0.188415
3948.00;0.198608
3950.00;0.225714
3952.00;0.275104
3954.00;0.318110
3956.00;0.353303
3958.00;0.377804
3960.00;0.411100
3962.00;0.439412
3964.00;0.446100
3966.00;0.427804
3968.00;0.396100
3970.00;0.359412
3972.00;0.323801
3974.00;0.290505
3976.00;0.259911
3978.00;0.229605
3980.00;0.207612
3982.00;0.229911
3984.00;0.266615
3986.00;0.331309
3988.00;0.380602
3990.00;0.440505
3992.00;0.484509
3994.00;0.516213
3996.00;0.536502
3998.00;0.548512
4000.00;0.567708
4002.00;0.578415
4004.00;0.583303
4006.00;0.579814
4008.00;0.583801
4010.00;0.593512
4012.00;0.604605
4014.00;0.609203
4016.00;0.620007
4018.00;0.618608
4020.00;0.617708
4022.00;0.619203
4024.00;0.629010
4026.00;0.644010
4028.00;0.650811
4030.00;0.651502
4032.00;0.642306
4034.00;0.627113
4036.00;0.621502
4038.00;0.619509
4040.00;0.600313
4042.00;0.575103
4044.00;0.565907
4046.00;0.606100
4048.00;0.642901
4050.00;0.659911
4052.00;0.643914
4054.00;0.616309
4056.00;0.584605
4058.00;0.569702
4060.00;0.573705
4062.00;0.598110
4064.00;0.608303
4066.00;0.616004
4068.00;0.614605
4070.00;0.603801
4072.00;0.589911
4074.00;0.573608
4076.00;0.573608
4078.00;0.594203
4080.00;0.601213
4082.00;0.602708
4084.00;0.596502
4086.00;0.594702
4088.00;0.593914
4090.00;0.593303
4092.00;0.610409
4094.00;0.636004
4096.00;0.664316
4098.00;0.675007
4100.00;0.689814
4102.00;0.685602
4104.00;0.683801
4106.00;0.656213
4108.00;0.625505
4110.00;0.595907
4112.00;0.572708
4114.00;0.563303
4116.00;0.565907
4118.00;0.580409
4120.00;0.600409
4122.00;0.613013
4124.00;0.624702
4126.00;0.633415
4128.00;0.634010
4130.00;0.630104
4132.00;0.615907
4134.00;0.615907
4136.00;0.628608
4138.00;0.640505
4140.00;0.636406
4142.00;0.610907
4144.00;0.599814
4146.00;0.591808
4148.00;0.594107
4150.00;0.585907
4152.00;0.584814
4154.00;0.580409
4156.00;0.574316
4158.00;0.569412
4160.00;0.562306
4162.00;0.563705
4164.00;0.576100
4166.00;0.586406
4168.00;0.595506
4170.00;0.604911
4172.00;0.620602
4174.00;0.639814
4176.00;0.647210
4178.00;0.647306
4180.00;0.635007
4182.00;0.617403
4184.00;0.595602
4186.00;0.589412
4188.00;0.583013
4190.00;0.593801
4192.00;0.603608
4194.00;0.624316
4196.00;0.633914
4198.00;0.633206
4200.00;0.625907
4202.00;0.623013
4204.00;0.626615
4206.00;0.629509
4208.00;0.634605
4210.00;0.611406
4212.00;0.597611
4214.00;0.596004
4216.00;0.623303
4218.00;0.641808
4220.00;0.658206
4222.00;0.664814
4224.00;0.663801
4226.00;0.643512
4228.00;0.638608
4230.00;0.655103
4232.00;0.677210
4234.00;0.667113
4236.00;0.629702
4238.00;0.579107
4240.00;0.559702
4242.00;0.578801
4244.00;0.611808
4246.00;0.638512
4248.00;0.645007
4250.00;0.658303
4252.00;0.663801
4254.00;0.687901
4256.00;0.705103
4258.00;0.712515
4260.00;0.689605
4262.00;0.662805
4264.00;0.639203
4266.00;0.630602
4268.00;0.632612
4270.00;0.643014
4272.00;0.647708
4274.00;0.654412
4276.00;0.676309
4278.00;0.695811
4280.00;0.679010
4282.00;0.640007
4284.00;0.596004
4286.00;0.577515
4288.00;0.587515
4290.00;0.612515
4292.00;0.644702
4294.00;0.653110
4296.00;0.647805
4298.00;0.636502
4300.00;0.617210
4302.00;0.602210
4304.00;0.585409
4306.00;0.588303
4308.00;0.580505
4310.00;0.565409
4312.00;0.528608
4314.00;0.501904
4316.00;0.480104
4318.00;0.472001
4320.00;0.473415
4322.00;0.483303
4324.00;0.514509
4326.00;0.573608
4328.00;0.653014
4330.00;0.725489
4332.00;0.758496
4334.00;0.748399
4336.00;0.707708
4338.00;0.666100
4340.00;0.660714
4342.00;0.694412
4344.00;0.733898
4346.00;0.760698
4348.00;0.755698
4350.00;0.726792
4352.00;0.664911
4354.00;0.615602
4356.00;0.629605
4358.00;0.724493
4360.00;0.810586
4362.00;0.825200
4364.00;0.773094
4366.00;0.732387
4368.00;0.729685
4370.00;0.744991
4372.00;0.758898
4374.00;0.776792
4376.00;0.795296
4378.00;0.809589
4380.00;0.808094
4382.00;0.787386
4384.00;0.763785
4386.00;0.741695
4388.00;0.722997
4390.00;0.706808
4392.00;0.700216
4394.00;0.683303
4396.00;0.663303
4398.00;0.639509
4400.00;0.641904
4402.00;0.664605
4404.00;0.691309
4406.00;0.720698
4408.00;0.738898
4410.00;0.754686
4412.00;0.759895
4414.00;0.754589
4416.00;0.731486
4418.00;0.713801
4420.00;0.709203
4422.00;0.724991
4424.00;0.763496
4426.00;0.801390
4428.00;0.823496
4430.00;0.815988
4432.00;0.806486
4434.00;0.806197
4436.00;0.813399
4438.00;0.817387
4440.00;0.814091
4442.00;0.805489
4444.00;0.804493
4446.00;0.808399
4448.00;0.808785
4450.00;0.802692
4452.00;0.812692
4454.00;0.832097
4456.00;0.850891
4458.00;0.858190
4460.00;0.869187
4462.00;0.875297
4464.00;0.876197
4466.00;0.852290
4468.00;0.823689
4470.00;0.786985
4472.00;0.764895
4474.00;0.761293
4476.00;0.785200
4478.00;0.811695
4480.00;0.829991
4482.00;0.838689
4484.00;0.855088
4486.00;0.878190
4488.00;0.891599
4490.00;0.899396
4492.00;0.889686
4494.00;0.888898
4496.00;0.892194
4498.00;0.902885
4500.00;0.904396
4502.00;0.900393
4504.00;0.892290
4506.00;0.885698
4508.00;0.869895
4510.00;0.885393
4512.00;0.899991
4514.00;0.925988
4516.00;0.932499
4518.00;0.956293
4520.00;0.966293
4522.00;0.973898
4524.00;0.963287
4526.00;0.957997
4528.00;0.948592
4530.00;0.936599
4532.00;0.936888
4534.00;0.939798
4536.00;0.936293
4538.00;0.901695
4540.00;0.860393
4542.00;0.827097
4544.00;0.820296
4546.00;0.816792
4548.00;0.829493
4550.00;0.860489
4552.00;0.894991
4554.00;0.914187
4556.00;0.907692
4558.00;0.904798
4560.00;0.905988
4562.00;0.905988
4564.00;0.903287
4566.00;0.898190
4568.00;0.911197
4570.00;0.930296
4572.00;0.951197
4574.00;0.966695
4576.00;0.968785
4578.00;0.966293
4580.00;0.960489
4582.00;0.958592
4584.00;0.957097
4586.00;0.951197
4588.00;0.952194
4590.00;0.960891
4592.00;0.954798
4594.00;0.932097
4596.00;0.912885
4598.00;0.917386
4600.00;0.928399
4602.00;0.931888
4604.00;0.930489
4606.00;0.928785
4608.00;0.923994
4610.00;0.920698
4612.00;0.918689
4614.00;0.919798
4616.00;0.918689
4618.00;0.924493
4620.00;0.931486
4622.00;0.953689
4624.00;0.971084
4626.00;0.985297
4628.00;0.988689
4630.00;0.992194
4632.00;0.992997
4634.00;1.000795
4636.00;1.002788
4638.00;1.004187
4640.00;1.000200
4642.00;1.004300
4644.00;1.005087
4646.00;0.991390
4648.00;0.969991
4650.00;0.957885
4652.00;0.939396
4654.00;0.927596
4656.00;0.922290
4658.00;0.923190
4660.00;0.924686
4662.00;0.910393
4664.00;0.911792
4666.00;0.917386
4668.00;0.939589
4670.00;0.942788
4672.00;0.956695
4674.00;0.965087
4676.00;0.973399
4678.00;0.941985
4680.00;0.899589
4682.00;0.876084
4684.00;0.883094
4686.00;0.904991
4688.00;0.917692
4690.00;0.917997
4692.00;0.919991
4694.00;0.915795
4696.00;0.911390
4698.00;0.905489
4700.00;0.906599
4702.00;0.913898
4704.00;0.912290
4706.00;0.918094
4708.00;0.920087
4710.00;0.921888
4712.00;0.909686
4714.00;0.898190
4716.00;0.893190
4718.00;0.888094
4720.00;0.889686
4722.00;0.897997
4724.00;0.906599
4726.00;0.911599
4728.00;0.915489
4730.00;0.932499
4732.00;0.959894
4734.00;0.982997
4736.00;0.993592
4738.00;0.988994
4740.00;0.974685
4742.00;0.951486
4744.00;0.928689
4746.00;0.915698
4748.00;0.918094
4750.00;0.931985
4752.00;0.949798
4754.00;0.970184
4756.00;0.983898
4758.00;0.983898
4760.00;0.977290
4762.00;0.977097
4764.00;0.977290
4766.00;0.980489
4768.00;0.974091
4770.00;0.970698
4772.00;0.968190
4774.00;0.963898
4776.00;0.951888
4778.00;0.939589
4780.00;0.931084
4782.00;0.926792
4784.00;0.926888
4786.00;0.933898
4788.00;0.949589
4790.00;0.963994
4792.00;0.970297
4794.00;0.975393
4796.00;0.970393
4798.00;0.957788
4800.00;0.942692
4802.00;0.941084
4804.00;0.949396
4806.00;0.960795
4808.00;0.969300
4810.00;0.983592
4812.00;0.991293
4814.00;0.991985
4816.00;0.994396
4818.00;0.992386
4820.00;0.994686
4822.00;0.988496
4824.00;1.000296
4826.00;0.997386
4828.00;0.996486
4830.00;0.989300
4832.00;0.998994
4834.00;1.014895
4836.00;1.014396
4838.00;0.998094
4840.00;0.981197
4842.00;0.971197
4844.00;0.981197
4846.00;0.972997
4848.00;0.977788
4850.00;0.967194
4852.00;0.977997
4854.00;0.970489
4856.00;0.967789
4858.00;0.958399
4860.00;0.958496
4862.00;0.966985
4864.00;0.971084
4866.00;0.966695
4868.00;0.954798
4870.00;0.928190
4872.00;0.897595
4874.00;0.860988
4876.00;0.845087
4878.00;0.847885
4880.00;0.857387
4882.00;0.870489
4884.00;0.882194
4886.00;0.894493
4888.00;0.902499
4890.00;0.908898
4892.00;0.919300
4894.00;0.927692
4896.00;0.936390
4898.00;0.939589
4900.00;0.927596
4902.00;0.918399
4904.00;0.918592
4906.00;0.933785
4908.00;0.953287
4910.00;0.971888
4912.00;0.991888
4914.00;1.002290
4916.00;1.005393
4918.00;0.999686
4920.00;0.986486
4922.00;0.972290
4924.00;0.973994
4926.00;0.986390
4928.00;0.986985
4930.00;0.964396
4932.00;0.928190
4934.00;0.913994
4936.00;0.909493
4938.00;0.921695
4940.00;0.936792
4942.00;0.965891
4944.00;0.993689
4946.00;1.002997
4948.00;0.988994
4950.00;0.975891
4952.00;0.969396
4954.00;0.977788
4956.00;0.983785
4958.00;0.994686
4960.00;1.007997
4962.00;1.013689
4964.00;1.023994
4966.00;1.023592
4968.00;1.012499
4970.00;0.982194
4972.00;0.959091
4974.00;0.947998
4976.00;0.947290
4978.00;0.953898
4980.00;0.954798
4982.00;0.959493
4984.00;0.963592
4986.00;0.973094
4988.00;0.974187
4990.00;0.967789
4992.00;0.955698
4994.00;0.943094
4996.00;0.913094
4998.00;0.896985
5000.00;0.884091
5002.00;0.898094
5004.00;0.902997
5006.00;0.920184
5008.00;0.930184
5010.00;0.939396
5012.00;0.935489
5014.00;0.921599
5016.00;0.907788
5018.00;0.894091
5020.00;0.880698
5022.00;0.876197
5024.00;0.872386
5026.00;0.870393
5028.00;0.867290
5030.00;0.862788
5032.00;0.863689
5034.00;0.867386
5036.00;0.877788
5038.00;0.892595
5040.00;0.903287
5042.00;0.908496
5044.00;0.909396
5046.00;0.914798
5048.00;0.917194
5050.00;0.913287
5052.00;0.898785
5054.00;0.882997
5056.00;0.872788
5058.00;0.874686
5060.00;0.886599
5062.00;0.895200
5064.00;0.894396
5066.00;0.897788
5068.00;0.914895
5070.00;0.933994
5072.00;0.947692
5074.00;0.948094
5076.00;0.940489
5078.00;0.930489
5080.00;0.917788
5082.00;0.906390
5084.00;0.898190
5086.00;0.902290
5088.00;0.908496
5090.00;0.903190
5092.00;0.888190
5094.00;0.886390
5096.00;0.882997
5098.00;0.880891
5100.00;0.878287
5102.00;0.888190
5104.00;0.902193
5106.00;0.903592
5108.00;0.908689
5110.00;0.904589
5112.00;0.900393
5114.00;0.889396
5116.00;0.880393
5118.00;0.873689
5120.00;0.856888
5122.00;0.867194
5124.00;0.880200
5126.00;0.896084
5128.00;0.896792
5130.00;0.906390
5132.00;0.931084
5134.00;0.944991
5136.00;0.933689
5138.00;0.903994
5140.00;0.873496
5142.00;0.857595
5144.00;0.849091
5146.00;0.857097
5148.00;0.877386
5150.00;0.892692
5152.00;0.881486
5154.00;0.863190
5156.00;0.861888
5158.00;0.870489
5160.00;0.877386
5162.00;0.879300
5164.00;0.885489
5166.00;0.885698
5168.00;0.880200
5170.00;0.875087
5172.00;0.874493
5174.00;0.872097
5176.00;0.859991
5178.00;0.837788
5180.00;0.812692
5182.00;0.794798
5184.00;0.768399
5186.00;0.725296
5188.00;0.693206
5190.00;0.696004
5192.00;0.726293
5194.00;0.742097
5196.00;0.749493
5198.00;0.767194
5200.00;0.813994
5202.00;0.881084
5204.00;0.932499
5206.00;0.936695
5208.00;0.895489
5210.00;0.866695
5212.00;0.868898
5214.00;0.886985
5216.00;0.889396
5218.00;0.880200
5220.00;0.870988
5222.00;0.867595
5224.00;0.870988
5226.00;0.875297
5228.00;0.885489
5230.00;0.908399
5232.00;0.941695
5234.00;0.957499
5236.00;0.953190
5238.00;0.951985
5240.00;0.960891
5242.00;0.958399
5244.00;0.935184
5246.00;0.927788
5248.00;0.935393
5250.00;0.950200
5252.00;0.955200
5254.00;0.962290
5256.00;0.983785
5258.00;1.014396
5260.00;1.043898
5262.00;1.041599
5264.00;1.006293
5266.00;0.964686
5268.00;0.945988
5270.00;0.950489
5272.00;0.966293
5274.00;0.982499
5276.00;0.995891
5278.00;0.985088
5280.00;0.948994
5282.00;0.905088
5284.00;0.871486
5286.00;0.859798
5288.00;0.863689
5290.00;0.883592
5292.00;0.902595
5294.00;0.930698
5296.00;0.977097
5298.00;1.015393
5300.00;1.032499
5302.00;1.029895
5304.00;1.037097
5306.00;1.044895
5308.00;1.048399
5310.00;1.050393
5312.00;1.050891
5314.00;1.049396
5316.00;1.036197
5318.00;1.017097
5320.00;1.015296
5322.00;1.034895
5324.00;1.066985
5326.00;1.082290
5328.00;1.076084
5330.00;1.060988
5332.00;1.045087
5334.00;1.034991
5336.00;1.031084
5338.00;1.024091
5340.00;1.010296
5342.00;0.987885
5344.00;0.962387
5346.00;0.947692
5348.00;0.947499
5350.00;0.957885
5352.00;0.977387
5354.00;0.996084
5356.00;1.006599
5358.00;1.007194
5360.00;1.005586
5362.00;1.012788
5364.00;1.019493
5366.00;1.023190
5368.00;1.025795
5370.00;1.034091
5372.00;1.051293
5374.00;1.065489
5376.00;1.066985
5378.00;1.053399
5380.00;1.041985
5382.00;1.038399
5384.00;1.035988
5386.00;1.033094
5388.00;1.021888
5390.00;1.009589
5392.00;1.004894
5394.00;1.015891
5396.00;1.031888
5398.00;1.038689
5400.00;1.042885
5402.00;1.044396
5404.00;1.039991
5406.00;1.025698
5408.00;1.009300
5410.00;0.998898
5412.00;0.996695
5414.00;0.997386
5416.00;0.985988
5418.00;0.967885
5420.00;0.958190
5422.00;0.968399
5424.00;0.979493
5426.00;0.980795
5428.00;0.978399
5430.00;0.985184
5432.00;0.996486
5434.00;1.006888
5436.00;1.017997
5438.00;1.026792
5440.00;1.029493
5442.00;1.021390
5444.00;1.007692
5446.00;0.991985
5448.00;0.976695
5450.00;0.969396
5452.00;0.978287
5454.00;0.995393
5456.00;1.002194
5458.00;0.994396
5460.00;1.019396
5462.00;1.058592
5464.00;1.078190
5466.00;1.050489
5468.00;1.016390
5470.00;1.001486
5472.00;0.991888
5474.00;0.989493
5476.00;0.990988
5478.00;0.990891
5480.00;0.979798
5482.00;0.973399
5484.00;0.982499
5486.00;1.003785
5488.00;1.022596
5490.00;1.028399
5492.00;1.017596
5494.00;0.991985
5496.00;0.959798
5498.00;0.950489
5500.00;0.967885
5502.00;0.993785
5504.00;1.009686
5506.00;1.010698
5508.00;1.014493
5510.00;1.021599
5512.00;1.019493
5514.00;1.013785
5516.00;1.012097
5518.00;1.026293
5520.00;1.034300
5522.00;1.018898
5524.00;0.994895
5526.00;0.984685
5528.00;0.985891
5530.00;0.987499
5532.00;0.989895
5534.00;1.000296
5536.00;1.022194
5538.00;1.040586
5540.00;1.037290
5542.00;1.021486
5544.00;1.010296
5546.00;1.020489
5548.00;1.038592
5550.00;1.040586
5552.00;1.027788
5554.00;1.021390
5556.00;1.035988
5558.00;1.057097
5560.00;1.054686
5562.00;1.032097
5564.00;1.010393
5566.00;1.012194
5568.00;1.010200
5570.00;1.009894
5572.00;0.999686
5574.00;1.003094
5576.00;1.006599
5578.00;1.009991
5580.00;1.013399
5582.00;1.016888
5584.00;1.020296
5586.00;1.023785
5588.00;1.027194
5590.00;1.032692
5592.00;1.035184
5594.00;1.045184
5596.00;1.059091
5598.00;1.064300
5600.00;1.049991
5602.00;1.026599
5604.00;1.013994
5606.00;1.001792
5608.00;0.987097
5610.00;0.974894
5612.00;0.978190
5614.00;0.989300
5616.00;1.003898
5618.00;1.020296
5620.00;1.036985
5622.00;1.053689
5624.00;1.071486
5626.00;1.089895
5628.00;1.097194
5630.00;1.086792
5632.00;1.063496
5634.00;1.041486
5636.00;1.031197
5638.00;1.027788
5640.00;1.021486
5642.00;1.010698
5644.00;1.009187
5646.00;1.024396
5648.00;1.045296
5650.00;1.049493
5652.00;1.043399
5654.00;1.036084
5656.00;1.032997
5658.00;1.028689
5660.00;1.023994
5662.00;1.025489
5664.00;1.029493
5666.00;1.038592
5668.00;1.044895
5670.00;1.044091
5672.00;1.042499
5674.00;1.033689
5676.00;1.024686
5678.00;1.016888
5680.00;1.010586
5682.00;1.011888
5684.00;1.017885
5686.00;1.039396
5688.00;1.062692
5690.00;1.076599
5692.00;1.080393
5694.00;1.070586
5696.00;1.062885
5698.00;1.060586
5700.00;1.059589
5702.00;1.050891
5704.00;1.038190
5706.00;1.032499
5708.00;1.026888
5710.00;1.024091
5712.00;1.034493
5714.00;1.057788
5716.00;1.070891
5718.00;1.068898
5720.00;1.049493
5722.00;1.023898
5724.00;1.007290
5726.00;0.997097
5728.00;0.996486
5730.00;0.998898
5732.00;1.011792
5734.00;1.035988
5736.00;1.058994
5738.00;1.082194
5740.00;1.092788
5742.00;1.091293
5744.00;1.087692
5746.00;1.091486
5748.00;1.093592
5750.00;1.086888
5752.00;1.088094
5754.00;1.092692
5756.00;1.091293
5758.00;1.078592
5760.00;1.074686
5762.00;1.069895
5764.00;1.056293
5766.00;1.040698
5768.00;1.046486
5770.00;1.068689
5772.00;1.083190
5774.00;1.079396
5776.00;1.070184
5778.00;1.065489
5780.00;1.066390
5782.00;1.070698
5784.00;1.077885
5786.00;1.092194
5788.00;1.111985
5790.00;1.129589
5792.00;1.135393
5794.00;1.124091
5796.00;1.102386
5798.00;1.072595
5800.00;1.040586
5802.00;1.020698
5804.00;1.031599
5806.00;1.054991
5808.00;1.066985
5810.00;1.061197
5812.00;1.074300
5814.00;1.098592
5816.00;1.110988
5818.00;1.101888
5820.00;1.101293
5822.00;1.116695
5824.00;1.125296
5826.00;1.118399
5828.00;1.106390
5830.00;1.104798
5832.00;1.110489
5834.00;1.109300
5836.00;1.099686
5838.00;1.089686
5840.00;1.094895
5842.00;1.113190
5844.00;1.130586
5846.00;1.137885
5848.00;1.137290
5850.00;1.134187
5852.00;1.130586
5854.00;1.124493
5856.00;1.125393
5858.00;1.128689
5860.00;1.127290
5862.00;1.116486
5864.00;1.110088
5866.00;1.110988
5868.00;1.111293
5870.00;1.108496
5872.00;1.090184
5874.00;1.061390
5876.00;1.037097
5878.00;1.042997
5880.00;1.055795
5882.00;1.035087
5884.00;0.982387
5886.00;0.975087
5888.00;1.016084
5890.00;1.069991
5892.00;1.114798
5894.00;1.117596
5896.00;1.100891
5898.00;1.069589
5900.00;1.055586
5902.00;1.046985
5904.00;1.004493
5906.00;0.952997
5908.00;0.903496
5910.00;0.861084
5912.00;0.830393
5914.00;0.825489
5916.00;0.851695
5918.00;0.898190
5920.00;0.947290
5922.00;0.986985
5924.00;1.013689
5926.00;1.032194
5928.00;1.045891
5930.00;1.053496
5932.00;1.059991
5934.00;1.070297
5936.00;1.085988
5938.00;1.085088
5940.00;1.067499
5942.00;1.056197
5944.00;1.066390
5946.00;1.074991
5948.00;1.061293
5950.00;1.048496
5952.00;1.055891
5954.00;1.075795
5956.00;1.083898
5958.00;1.084686
5960.00;1.085489
5962.00;1.088785
5964.00;1.088898
5966.00;1.089686
5968.00;1.084396
5970.00;1.073094
5972.00;1.063898
5974.00;1.058496
5976.00;1.063399
5978.00;1.075297
5980.00;1.092885
5982.00;1.094895
5984.00;1.082499
5986.00;1.080087
5988.00;1.085891
5990.00;1.085489
5992.00;1.069091
5994.00;1.061084
5996.00;1.058898
5998.00;1.062885
6000.00;1.068898
6002.00;1.070698
6004.00;1.066888
6006.00;1.060393
6008.00;1.065393
6010.00;1.070489
6012.00;1.071985
6014.00;1.070393
6016.00;1.066293
6018.00;1.060988
6020.00;1.057194
6022.00;1.059686
6024.00;1.060988
6026.00;1.055393
6028.00;1.051084
6030.00;1.058898
6032.00;1.072194
6034.00;1.085795
6036.00;1.086293
6038.00;1.072499
6040.00;1.061293
6042.00;1.052595
6044.00;1.049187
6046.00;1.047885
6048.00;1.059493
6050.00;1.084991
6052.00;1.097290
6054.00;1.089396
6056.00;1.084686
6058.00;1.096599
6060.00;1.111888
6062.00;1.123094
6064.00;1.124686
6066.00;1.127788
6068.00;1.132692
6070.00;1.138287
6072.00;1.141888
6074.00;1.131486
6076.00;1.112997
6078.00;1.104187
6080.00;1.110586
6082.00;1.121197
6084.00;1.127499
6086.00;1.127692
6088.00;1.129396
6090.00;1.129895
6092.00;1.128689
6094.00;1.120088
6096.00;1.100698
6098.00;1.085698
6100.00;1.083287
6102.00;1.092692
6104.00;1.096084
6106.00;1.094396
6108.00;1.096197
6110.00;1.105296
6112.00;1.116792
6114.00;1.121486
6116.00;1.122097
6118.00;1.124798
6120.00;1.118898
6122.00;1.107997
6124.00;1.095393
6126.00;1.093287
6128.00;1.098689
6130.00;1.099300
6132.00;1.096197
6134.00;1.093496
6136.00;1.089493
6138.00;1.080586
6140.00;1.060988
6142.00;1.049187
6144.00;1.051888
6146.00;1.066390
6148.00;1.085184
6150.00;1.103496
6152.00;1.117692
6154.00;1.121293
6156.00;1.116084
6158.00;1.108190
6160.00;1.102097
6162.00;1.100698
6164.00;1.101486
6166.00;1.094300
6168.00;1.079686
6170.00;1.067595
6172.00;1.061390
6174.00;1.054300
6176.00;1.035586
6178.00;1.014493
6180.00;0.997290
6182.00;0.985891
6184.00;0.981084
6186.00;0.993287
6188.00;1.011197
6190.00;1.027499
6192.00;1.042885
6194.00;1.053592
6196.00;1.056486
6198.00;1.049091
6200.00;1.055489
6202.00;1.065586
6204.00;1.065586
6206.00;1.051486
6208.00;1.035087
6210.00;1.022194
6212.00;1.013190
6214.00;1.016695
6216.00;1.022499
6218.00;1.026985
6220.00;1.031599
6222.00;1.042387
6224.00;1.049589
6226.00;1.041695
6228.00;1.023592
6230.00;1.009894
6232.00;1.005891
6234.00;1.010296
6236.00;1.019091
6238.00;1.030087
6240.00;1.037194
6242.00;1.032885
6244.00;1.019300
6246.00;1.001390
6248.00;0.983994
6250.00;0.967290
6252.00;0.951084
6254.00;0.943592
6256.00;0.952596
6258.00;0.979685
6260.00;1.006792
6262.00;1.014493
6264.00;1.001197
6266.00;0.987885
6268.00;0.989798
6270.00;1.001390
6272.00;1.001599
6274.00;0.985088
6276.00;0.958592
6278.00;0.935891
6280.00;0.925698
6282.00;0.934396
6284.00;0.960586
6286.00;0.993994
6288.00;1.019991
6290.00;1.025296
6292.00;1.020795
6294.00;1.014300
6296.00;1.015988
6298.00;1.017788
6300.00;1.019589
6302.00;1.021390
6304.00;1.023190
6306.00;1.024991
6308.00;1.026792
6310.00;1.036985
6312.00;1.044991
6314.00;1.044091
6316.00;1.034396
6318.00;1.026599
6320.00;1.028190
6322.00;1.031486
6324.00;1.036293
6326.00;1.037596
6328.00;1.041197
6330.00;1.051084
6332.00;1.059300
6334.00;1.052692
6336.00;1.032097
6338.00;1.017194
6340.00;1.014396
6342.00;1.016599
6344.00;1.019991
6346.00;1.033287
6348.00;1.053994
6350.00;1.071695
6352.00;1.066985
6354.00;1.055988
6356.00;1.045296
6358.00;1.045184
6360.00;1.044991
6362.00;1.044895
6364.00;1.044686
6366.00;1.044589
6368.00;1.044396
6370.00;1.044300
6372.00;1.044091
6374.00;1.043994
6376.00;1.037499
6378.00;1.028190
6380.00;1.022997
6382.00;1.030296
6384.00;1.045087
6386.00;1.060891
6388.00;1.072885
6390.00;1.078094
6392.00;1.078898
6394.00;1.082097
6396.00;1.091390
6398.00;1.096486
6400.00;1.092499
6402.00;1.083094
6404.00;1.075489
6406.00;1.062997
6408.00;1.052885
6410.00;1.052387
6412.00;1.062595
6414.00;1.066390
6416.00;1.060489
6418.00;1.059300
6420.00;1.072788
6422.00;1.091197
6424.00;1.102596
6426.00;1.104895
6428.00;1.103399
6430.00;1.097997
6432.00;1.086792
6434.00;1.075795
6436.00;1.075988
6438.00;1.079798
6440.00;1.074686
6442.00;1.061888
6444.00;1.051390
6446.00;1.053785
6448.00;1.062499
6450.00;1.070393
6452.00;1.074091
6454.00;1.071599
6456.00;1.067692
6458.00;1.063898
6460.00;1.064589
6462.00;1.071888
6464.00;1.078994
6466.00;1.083994
6468.00;1.086792
6470.00;1.089589
6472.00;1.086486
6474.00;1.080297
6476.00;1.076888
6478.00;1.077595
6480.00;1.076888
6482.00;1.072788
6484.00;1.068689
6486.00;1.066792
6488.00;1.065087
6490.00;1.061888
6492.00;1.058399
6494.00;1.058785
6496.00;1.069991
6498.00;1.094300
6500.00;1.126197
6502.00;1.151888
6504.00;1.148399
6506.00;1.114396
6508.00;1.081486
6510.00;1.061599
6512.00;1.055087
6514.00;1.040087
6516.00;1.014589
6518.00;1.001599
6520.00;1.007596
6522.00;1.029685
6524.00;1.054493
6526.00;1.062595
6528.00;1.059991
6530.00;1.057387
6532.00;1.066792
6534.00;1.096599
6536.00;1.125296
6538.00;1.121486
6540.00;1.097386
6542.00;1.077997
6544.00;1.090088
6546.00;1.104895
6548.00;1.099187
6550.00;1.084686
6552.00;1.086486
6554.00;1.105088
6556.00;1.122097
6558.00;1.121084
6560.00;1.110200
6562.00;1.101197
6564.00;1.100698
6566.00;1.101486
6568.00;1.090297
6570.00;1.072387
6572.00;1.056390
6574.00;1.044991
6576.00;1.038496
6578.00;1.034798
6580.00;1.036985
6582.00;1.027499
6584.00;1.006486
6586.00;0.987692
6588.00;0.985088
6590.00;0.993399
6592.00;1.006792
6594.00;1.025087
6596.00;1.047290
6598.00;1.067194
6600.00;1.078898
6602.00;1.084091
6604.00;1.090184
6606.00;1.099798
6608.00;1.107194
6610.00;1.101599
6612.00;1.086486
6614.00;1.071390
6616.00;1.067788
6618.00;1.078592
6620.00;1.088689
6622.00;1.090891
6624.00;1.085393
6626.00;1.079300
6628.00;1.075891
6630.00;1.073994
6632.00;1.080698
6634.00;1.088190
6636.00;1.091695
6638.00;1.091985
6640.00;1.094187
6642.00;1.097386
6644.00;1.095489
6646.00;1.088785
6648.00;1.086084
6650.00;1.087097
6652.00;1.087290
6654.00;1.079300
6656.00;1.071084
6658.00;1.065393
6660.00;1.062692
6662.00;1.069798
6664.00;1.084589
6666.00;1.099589
6668.00;1.101888
6670.00;1.098689
6672.00;1.093898
6674.00;1.088094
6676.00;1.081599
6678.00;1.077386
6680.00;1.075698
6682.00;1.073287
6684.00;1.070586
6686.00;1.066293
6688.00;1.062499
6690.00;1.062290
6692.00;1.067595
6694.00;1.070988
6696.00;1.068287
6698.00;1.066084
6700.00;1.071486
6702.00;1.079187
6704.00;1.079589
6706.00;1.077097
6708.00;1.075586
6710.00;1.073994
6712.00;1.066792
6714.00;1.066486
6716.00;1.070393
6718.00;1.072997
6720.00;1.069589
6722.00;1.067194
6724.00;1.066888
6726.00;1.064396
6728.00;1.069991
6730.00;1.083898
6732.00;1.092499
6734.00;1.078190
6736.00;1.053094
6738.00;1.037290
6740.00;1.042387
6742.00;1.057997
6744.00;1.068496
6746.00;1.068094
6748.00;1.062997
6750.00;1.065393
6752.00;1.070489
6754.00;1.068399
6756.00;1.056390
6758.00;1.050795
6760.00;1.053399
6762.00;1.058094
6764.00;1.057499
6766.00;1.052692
6768.00;1.050586
6770.00;1.051084
6772.00;1.052997
6774.00;1.058399
6776.00;1.066293
6778.00;1.075698
6780.00;1.077194
6782.00;1.074187
6784.00;1.072997
6786.00;1.072387
6788.00;1.067194
6790.00;1.058689
6792.00;1.056390
6794.00;1.063592
6796.00;1.076985
6798.00;1.082290
6800.00;1.069991
6802.00;1.055698
6804.00;1.049798
6806.00;1.057595
6808.00;1.066486
6810.00;1.069187
6812.00;1.061084
6814.00;1.045891
6816.00;1.045988
6818.00;1.055087
6820.00;1.060795
6822.00;1.054895
6824.00;1.049686
6826.00;1.051695
6828.00;1.053785
6830.00;1.055795
6832.00;1.057885
6834.00;1.059895
6836.00;1.061985
6838.00;1.063994
6840.00;1.066084
6842.00;1.068094
6844.00;1.070184
6846.00;1.076599
6848.00;1.074493
6850.00;1.066792
6852.00;1.060087
6854.00;1.054895
6856.00;1.046197
6858.00;1.028689
6860.00;1.018994
6862.00;1.032499
6864.00;1.060988
6866.00;1.079091
6868.00;1.050795
6870.00;0.967290
6872.00;0.865297
6874.00;0.800087
6876.00;0.793898
6878.00;0.836084
6880.00;0.893190
6882.00;0.945296
6884.00;0.975087
6886.00;0.981695
6888.00;0.978094
6890.00;0.972788
6892.00;0.968496
6894.00;0.961599
6896.00;0.956486
6898.00;0.956985
6900.00;0.969798
6902.00;0.993689
6904.00;1.010795
6906.00;1.019300
6908.00;1.015296
6910.00;1.008287
6912.00;1.021792
6914.00;1.050586
6916.00;1.077386
6918.00;1.068190
6920.00;1.049991
6922.00;1.059686
6924.00;1.100891
6926.00;1.138399
6928.00;1.146888
6930.00;1.121985
6932.00;1.085088
6934.00;1.063190
6936.00;1.066486
6938.00;1.084187
6940.00;1.087788
6942.00;1.075297
6944.00;1.056888
6946.00;1.049686
6948.00;1.063399
6950.00;1.093785
6952.00;1.129091
6954.00;1.148399
6956.00;1.136486
6958.00;1.104589
6960.00;1.072499
6962.00;1.059991
6964.00;1.055698
6966.00;1.057997
6968.00;1.071197
6970.00;1.088094
6972.00;1.091599
6974.00;1.081486
6976.00;1.080795
6978.00;1.092997
6980.00;1.114396
6982.00;1.134091
6984.00;1.146888
6986.00;1.138689
6988.00;1.118094
6990.00;1.103994
6992.00;1.101599
6994.00;1.102596
6996.00;1.093094
6998.00;1.076695
7000.00;1.065087
7002.00;1.068785
7004.00;1.083689
7006.00;1.087097
7008.00;1.079798
7010.00;1.076599
7012.00;1.089589
7014.00;1.104589
7016.00;1.113689
7018.00;1.111985
7020.00;1.103094
7022.00;1.096486
7024.00;1.099091
7026.00;1.107997
7028.00;1.104396
7030.00;1.090393
7032.00;1.081293
7034.00;1.086084
7036.00;1.088785
7038.00;1.080297
7040.00;1.068689
7042.00;1.072290
7044.00;1.088094
7046.00;1.104589
7048.00;1.114686
7050.00;1.125586
7052.00;1.143592
7054.00;1.159589
7056.00;1.162499
7058.00;1.155296
7060.00;1.152387
7062.00;1.158190
7064.00;1.164589
7066.00;1.178689
7068.00;1.194991
7070.00;1.205698
7072.00;1.198592
7074.00;1.187788
7076.00;1.186985
7078.00;1.193094
7080.00;1.194187
7082.00;1.187097
7084.00;1.173592
7086.00;1.161197
7088.00;1.157997
7090.00;1.171599
7092.00;1.200795
7094.00;1.229091
7096.00;1.241985
7098.00;1.240891
7100.00;1.233689